#   nfi    time(ps)        ekinc        T_cell(K)     Tion(K)          etot               enthal               econs               econt          Volume        Pressure(GPa)        EXX               EVDW
     10  2.902661E-03  1.272892E+00  0.000000E+00  0.000000E+00        -29.20957513        -29.20957513        -29.20957513        -27.93668283  1.728000E+03      35.48300
     20  5.805322E-03  5.753333E-02  0.000000E+00  0.000000E+00        -31.28961404        -31.28961404        -31.28961404        -31.23208070  1.728000E+03       4.61049
     30  8.707984E-03  1.706224E-02  0.000000E+00  0.000000E+00        -31.46150826        -31.46150826        -31.46150826        -31.44444601  1.728000E+03       4.99729
     40  1.161064E-02  1.338144E-02  0.000000E+00  0.000000E+00        -31.57647767        -31.57647767        -31.57647767        -31.56309623  1.728000E+03       3.15347
     50  1.451331E-02  1.091573E-02  0.000000E+00  0.000000E+00        -31.67385488        -31.67385488        -31.67385488        -31.66293916  1.728000E+03       1.45053
     60  1.741597E-02  1.306543E-02  0.000000E+00  4.692686E+00        -31.75056495        -31.75056495        -31.75052036        -31.73745494  1.728000E+03       0.09735
     70  2.031863E-02  2.248076E-04  0.000000E+00  3.449566E-01        -31.75400202        -31.75400202        -31.75399874        -31.75377393  1.728000E+03      -0.18546
     80  2.322129E-02  1.955068E-04  0.000000E+00  5.291481E-02        -31.75497207        -31.75497207        -31.75497156        -31.75477606  1.728000E+03      -0.21480
     90  2.612395E-02  1.047245E-05  0.000000E+00  8.371447E-03        -31.75506970        -31.75506970        -31.75506962        -31.75505915  1.728000E+03      -0.22138
    100  2.902661E-02  2.706258E-06  0.000000E+00  2.616692E-03        -31.75508502        -31.75508502        -31.75508500        -31.75508229  1.728000E+03      -0.22431
    110  3.192927E-02  2.708006E-07  0.000000E+00  9.828272E-04        -31.75508672        -31.75508672        -31.75508671        -31.75508644  1.728000E+03      -0.22659
    120  3.483193E-02  4.645798E-08  0.000000E+00  4.476777E-04        -31.75508709        -31.75508709        -31.75508709        -31.75508704  1.728000E+03      -0.22778
    130  3.773460E-02  2.676887E-08  0.000000E+00  1.871301E-03        -31.75508711        -31.75508711        -31.75508709        -31.75508706  1.728000E+03      -0.22922
    140  4.063726E-02  5.798251E-02  0.000000E+00  0.000000E+00        -31.62264792        -31.62264792        -31.62264792        -31.56466541  1.728000E+03       4.48992
    150  4.353992E-02  1.108933E-02  0.000000E+00  0.000000E+00        -31.70753642        -31.70753642        -31.70753642        -31.69644709  1.728000E+03       5.78194
    160  4.644258E-02  1.139926E-03  0.000000E+00  0.000000E+00        -31.71371945        -31.71371945        -31.71371945        -31.71257953  1.728000E+03       4.69179
    170  4.934524E-02  1.480162E-04  0.000000E+00  0.000000E+00        -31.71487800        -31.71487800        -31.71487800        -31.71472998  1.728000E+03       4.08458
    180  5.224790E-02  2.431922E-05  0.000000E+00  0.000000E+00        -31.71504766        -31.71504766        -31.71504766        -31.71502334  1.728000E+03       3.89980
    190  5.515056E-02  1.051484E-02  0.000000E+00  1.273226E+03        -31.73760719        -31.73760719        -31.72551098        -31.71499614  1.728000E+03       2.36088
    200  5.805322E-02  1.417270E-02  0.000000E+00  2.643250E+03        -31.75436367        -31.75436367        -31.72925161        -31.71507891  1.728000E+03      -0.45459
    210  6.095589E-02  6.748276E-03  0.000000E+00  1.794527E+03        -31.73885451        -31.73885451        -31.72180570        -31.71505742  1.728000E+03      -1.70123
    220  6.385855E-02  1.665840E-03  0.000000E+00  4.926333E+02        -31.72137339        -31.72137339        -31.71669315        -31.71502731  1.728000E+03      -1.97178
    230  6.676121E-02  5.917932E-04  0.000000E+00  5.976863E-02        -31.71560013        -31.71560013        -31.71559957        -31.71500777  1.728000E+03      -1.95965
    240  6.966387E-02  3.579981E-03  0.000000E+00  5.954988E+02        -31.72424987        -31.72424987        -31.71859237        -31.71501239  1.728000E+03      -1.80197
    250  7.256653E-02  8.562779E-03  0.000000E+00  2.051043E+03        -31.74311070        -31.74311070        -31.72362489        -31.71506211  1.728000E+03      -1.32614
    260  7.546919E-02  1.193814E-02  0.000000E+00  2.878374E+03        -31.75438552        -31.75438552        -31.72703969        -31.71510155  1.728000E+03       0.22182
    270  7.837185E-02  4.698288E-03  0.000000E+00  1.063726E+03        -31.72980720        -31.72980720        -31.71970133        -31.71500304  1.728000E+03       2.58975
    280  8.127451E-02  2.391177E-03  0.000000E+00  3.159859E+02        -31.72033575        -31.72033575        -31.71733374        -31.71494257  1.728000E+03       3.25722
    290  8.417717E-02  1.247370E-02  0.000000E+00  2.512138E+03        -31.75144396        -31.75144396        -31.72757753        -31.71510383  1.728000E+03       1.01388
    300  8.707984E-02  1.021647E-02  0.000000E+00  2.438736E+03        -31.74848720        -31.74848720        -31.72531813        -31.71510165  1.728000E+03      -0.72821
    310  8.998250E-02  4.279751E-03  0.000000E+00  1.032477E+03        -31.72914203        -31.72914203        -31.71933304        -31.71505329  1.728000E+03      -1.69597
    320  9.288516E-02  8.110009E-04  0.000000E+00  8.703857E+01        -31.71666760        -31.71666760        -31.71584069        -31.71502969  1.728000E+03      -2.01194
    330  9.578782E-02  1.398486E-03  0.000000E+00  1.916577E+02        -31.71825412        -31.71825412        -31.71643329        -31.71503480  1.728000E+03      -2.25093
    340  9.869048E-02  5.881474E-03  0.000000E+00  1.293011E+03        -31.73322782        -31.73322782        -31.72094364        -31.71506217  1.728000E+03      -1.98482
    350  1.015931E-01  1.140965E-02  0.000000E+00  2.652462E+03        -31.75171474        -31.75171474        -31.72651516        -31.71510551  1.728000E+03      -0.88070
    360  1.044958E-01  1.020534E-02  0.000000E+00  2.235104E+03        -31.74653216        -31.74653216        -31.72529768        -31.71509235  1.728000E+03       1.56129
    370  1.073985E-01  8.365679E-04  0.000000E+00  5.584155E+01        -31.71631181        -31.71631181        -31.71578129        -31.71494472  1.728000E+03       3.79549
    380  1.103011E-01  7.855193E-03  0.000000E+00  1.560876E+03        -31.73774996        -31.73774996        -31.72292095        -31.71506576  1.728000E+03       2.59293
#   nfi    time(ps)        ekinc        T_cell(K)     Tion(K)          etot               enthal               econs               econt          Volume        Pressure(GPa)        EXX               EVDW
     10  2.902661E-03  1.272892E+00  0.000000E+00  0.000000E+00        -29.20957513        -29.20957513        -29.20957513        -27.93668283  1.728000E+03      35.48300
     20  5.805322E-03  5.753333E-02  0.000000E+00  0.000000E+00        -31.28961404        -31.28961404        -31.28961404        -31.23208070  1.728000E+03       4.61049
     30  8.707984E-03  1.706224E-02  0.000000E+00  0.000000E+00        -31.46150826        -31.46150826        -31.46150826        -31.44444601  1.728000E+03       4.99729
     40  1.161064E-02  1.338144E-02  0.000000E+00  0.000000E+00        -31.57647767        -31.57647767        -31.57647767        -31.56309623  1.728000E+03       3.15347
     50  1.451331E-02  1.091573E-02  0.000000E+00  0.000000E+00        -31.67385488        -31.67385488        -31.67385488        -31.66293916  1.728000E+03       1.45053
     60  1.741597E-02  1.306543E-02  0.000000E+00  4.692686E+00        -31.75056495        -31.75056495        -31.75052036        -31.73745494  1.728000E+03       0.09735
     70  2.031863E-02  2.248076E-04  0.000000E+00  3.449566E-01        -31.75400202        -31.75400202        -31.75399874        -31.75377393  1.728000E+03      -0.18546
     80  2.322129E-02  1.955068E-04  0.000000E+00  5.291481E-02        -31.75497207        -31.75497207        -31.75497156        -31.75477606  1.728000E+03      -0.21480
     90  2.612395E-02  1.047245E-05  0.000000E+00  8.371447E-03        -31.75506970        -31.75506970        -31.75506962        -31.75505915  1.728000E+03      -0.22138
    100  2.902661E-02  2.706258E-06  0.000000E+00  2.616692E-03        -31.75508502        -31.75508502        -31.75508500        -31.75508229  1.728000E+03      -0.22431
    110  3.192927E-02  2.708006E-07  0.000000E+00  9.828272E-04        -31.75508672        -31.75508672        -31.75508671        -31.75508644  1.728000E+03      -0.22659
    120  3.483193E-02  4.645798E-08  0.000000E+00  4.476777E-04        -31.75508709        -31.75508709        -31.75508709        -31.75508704  1.728000E+03      -0.22778
    130  3.773460E-02  2.676887E-08  0.000000E+00  1.871301E-03        -31.75508711        -31.75508711        -31.75508709        -31.75508706  1.728000E+03      -0.22922
    140  4.063726E-02  5.798251E-02  0.000000E+00  0.000000E+00        -31.62264792        -31.62264792        -31.62264792        -31.56466541  1.728000E+03       4.48992
    150  4.353992E-02  1.108933E-02  0.000000E+00  0.000000E+00        -31.70753642        -31.70753642        -31.70753642        -31.69644709  1.728000E+03       5.78194
    160  4.644258E-02  1.139926E-03  0.000000E+00  0.000000E+00        -31.71371945        -31.71371945        -31.71371945        -31.71257953  1.728000E+03       4.69179
    170  4.934524E-02  1.480162E-04  0.000000E+00  0.000000E+00        -31.71487800        -31.71487800        -31.71487800        -31.71472998  1.728000E+03       4.08458
    180  5.224790E-02  2.431922E-05  0.000000E+00  0.000000E+00        -31.71504766        -31.71504766        -31.71504766        -31.71502334  1.728000E+03       3.89980
    190  5.515056E-02  1.051484E-02  0.000000E+00  1.273226E+03        -31.73760719        -31.73760719        -31.72551098        -31.71499614  1.728000E+03       2.36088
    200  5.805322E-02  1.417270E-02  0.000000E+00  2.643250E+03        -31.75436367        -31.75436367        -31.72925161        -31.71507891  1.728000E+03      -0.45459
    210  6.095589E-02  6.748276E-03  0.000000E+00  1.794527E+03        -31.73885451        -31.73885451        -31.72180570        -31.71505742  1.728000E+03      -1.70123
    220  6.385855E-02  1.665840E-03  0.000000E+00  4.926333E+02        -31.72137339        -31.72137339        -31.71669315        -31.71502731  1.728000E+03      -1.97178
    230  6.676121E-02  5.917932E-04  0.000000E+00  5.976863E-02        -31.71560013        -31.71560013        -31.71559957        -31.71500777  1.728000E+03      -1.95965
    240  6.966387E-02  3.579981E-03  0.000000E+00  5.954988E+02        -31.72424987        -31.72424987        -31.71859237        -31.71501239  1.728000E+03      -1.80197
    250  7.256653E-02  8.562779E-03  0.000000E+00  2.051043E+03        -31.74311070        -31.74311070        -31.72362489        -31.71506211  1.728000E+03      -1.32614
    260  7.546919E-02  1.193814E-02  0.000000E+00  2.878374E+03        -31.75438552        -31.75438552        -31.72703969        -31.71510155  1.728000E+03       0.22182
    270  7.837185E-02  4.698288E-03  0.000000E+00  1.063726E+03        -31.72980720        -31.72980720        -31.71970133        -31.71500304  1.728000E+03       2.58975
    280  8.127451E-02  2.391177E-03  0.000000E+00  3.159859E+02        -31.72033575        -31.72033575        -31.71733374        -31.71494257  1.728000E+03       3.25722
    290  8.417717E-02  1.247370E-02  0.000000E+00  2.512138E+03        -31.75144396        -31.75144396        -31.72757753        -31.71510383  1.728000E+03       1.01388
    300  8.707984E-02  1.021647E-02  0.000000E+00  2.438736E+03        -31.74848720        -31.74848720        -31.72531813        -31.71510165  1.728000E+03      -0.72821
    310  8.998250E-02  4.279751E-03  0.000000E+00  1.032477E+03        -31.72914203        -31.72914203        -31.71933304        -31.71505329  1.728000E+03      -1.69597
    320  9.288516E-02  8.110009E-04  0.000000E+00  8.703857E+01        -31.71666760        -31.71666760        -31.71584069        -31.71502969  1.728000E+03      -2.01194
    330  9.578782E-02  1.398486E-03  0.000000E+00  1.916577E+02        -31.71825412        -31.71825412        -31.71643329        -31.71503480  1.728000E+03      -2.25093
    340  9.869048E-02  5.881474E-03  0.000000E+00  1.293011E+03        -31.73322782        -31.73322782        -31.72094364        -31.71506217  1.728000E+03      -1.98482
    350  1.015931E-01  1.140965E-02  0.000000E+00  2.652462E+03        -31.75171474        -31.75171474        -31.72651516        -31.71510551  1.728000E+03      -0.88070
    360  1.044958E-01  1.020534E-02  0.000000E+00  2.235104E+03        -31.74653216        -31.74653216        -31.72529768        -31.71509235  1.728000E+03       1.56129
    370  1.073985E-01  8.365679E-04  0.000000E+00  5.584155E+01        -31.71631181        -31.71631181        -31.71578129        -31.71494472  1.728000E+03       3.79549
    380  1.103011E-01  7.855193E-03  0.000000E+00  1.560876E+03        -31.73774996        -31.73774996        -31.72292095        -31.71506576  1.728000E+03       2.59293
