#  E (eV)   dosup(E)     dosdw(E)   Int dos(E)
  5.749  0.0000E+00  0.0000E+00  0.0000E+00
  5.849  0.9326E-03  0.4526E-03  0.1385E-03
  5.949  0.3730E-02  0.2684E-02  0.7799E-03
  6.049  0.1327E-01  0.6779E-02  0.2785E-02
  6.149  0.1422E-01  0.1859E-01  0.6066E-02
  6.249  0.1686E-01  0.1600E-01  0.9353E-02
  6.349  0.1969E-01  0.1876E-01  0.1320E-01
  6.449  0.2270E-01  0.2169E-01  0.1764E-01
  6.549  0.2663E-01  0.2502E-01  0.2280E-01
  6.649  0.3047E-01  0.2934E-01  0.2878E-01
  6.749  0.3266E-01  0.3199E-01  0.3525E-01
  6.849  0.3143E-01  0.3155E-01  0.4155E-01
  6.949  0.3324E-01  0.3233E-01  0.4810E-01
  7.049  0.3541E-01  0.3437E-01  0.5508E-01
  7.149  0.3778E-01  0.3661E-01  0.6252E-01
  7.249  0.4035E-01  0.3904E-01  0.7046E-01
  7.349  0.4304E-01  0.4162E-01  0.7892E-01
  7.449  0.4578E-01  0.4426E-01  0.8793E-01
  7.549  0.4829E-01  0.4691E-01  0.9745E-01
  7.649  0.5012E-01  0.4854E-01  0.1073E+00
  7.749  0.5207E-01  0.5034E-01  0.1176E+00
  7.849  0.5397E-01  0.5207E-01  0.1282E+00
  7.949  0.5555E-01  0.5366E-01  0.1391E+00
  8.049  0.5758E-01  0.5509E-01  0.1503E+00
  8.149  0.6041E-01  0.5729E-01  0.1621E+00
  8.249  0.6358E-01  0.6005E-01  0.1745E+00
  8.349  0.6693E-01  0.6298E-01  0.1875E+00
  8.449  0.7047E-01  0.6605E-01  0.2011E+00
  8.549  0.7419E-01  0.6927E-01  0.2155E+00
  8.649  0.7759E-01  0.7249E-01  0.2305E+00
  8.749  0.8066E-01  0.7505E-01  0.2460E+00
  8.849  0.8645E-01  0.7866E-01  0.2626E+00
  8.949  0.9145E-01  0.8234E-01  0.2799E+00
  9.049  0.9682E-01  0.8625E-01  0.2982E+00
  9.149  0.1024E+00  0.9039E-01  0.3175E+00
  9.249  0.1084E+00  0.9458E-01  0.3378E+00
  9.349  0.1161E+00  0.9894E-01  0.3593E+00
  9.449  0.1251E+00  0.1044E+00  0.3823E+00
  9.549  0.1354E+00  0.1108E+00  0.4069E+00
  9.649  0.1469E+00  0.1180E+00  0.4334E+00
  9.749  0.1597E+00  0.1260E+00  0.4620E+00
  9.849  0.1892E+00  0.1347E+00  0.4944E+00
  9.949  0.2341E+00  0.1452E+00  0.5323E+00
 10.049  0.2856E+00  0.1619E+00  0.5770E+00
 10.149  0.3427E+00  0.1828E+00  0.6296E+00
 10.249  0.4699E+00  0.2070E+00  0.6973E+00
 10.349  0.5345E+00  0.2411E+00  0.7748E+00
 10.449  0.5402E+00  0.2829E+00  0.8571E+00
 10.549  0.5567E+00  0.3932E+00  0.9521E+00
 10.649  0.5725E+00  0.4647E+00  0.1056E+01
 10.749  0.6299E+00  0.4700E+00  0.1166E+01
 10.849  0.7604E+00  0.4888E+00  0.1291E+01
 10.949  0.8368E+00  0.5089E+00  0.1425E+01
 11.049  0.9253E+00  0.5319E+00  0.1571E+01
 11.149  0.9659E+00  0.5341E+00  0.1721E+01
 11.249  0.9314E+00  0.5281E+00  0.1867E+01
 11.349  0.6854E+00  0.7029E+00  0.2006E+01
 11.449  0.6154E+00  0.7860E+00  0.2146E+01
 11.549  0.7950E+00  0.8864E+00  0.2314E+01
 11.649  0.8310E+00  0.8301E+00  0.2480E+01
 11.749  0.7760E+00  0.7162E+00  0.2629E+01
 11.849  0.7504E+00  0.5897E+00  0.2763E+01
 11.949  0.8975E+00  0.7129E+00  0.2924E+01
 12.049  0.8303E+00  0.8009E+00  0.3088E+01
 12.149  0.8808E+00  0.8257E+00  0.3258E+01
 12.249  0.1135E+01  0.7695E+00  0.3449E+01
 12.349  0.1179E+01  0.7044E+00  0.3637E+01
 12.449  0.1152E+01  0.7086E+00  0.3823E+01
 12.549  0.1200E+01  0.7091E+00  0.4014E+01
 12.649  0.1365E+01  0.7877E+00  0.4229E+01
 12.749  0.1447E+01  0.9524E+00  0.4469E+01
 12.849  0.1521E+01  0.1159E+01  0.4737E+01
 12.949  0.1510E+01  0.1140E+01  0.5002E+01
 13.049  0.9799E+00  0.1140E+01  0.5214E+01
 13.149  0.1017E+01  0.1256E+01  0.5441E+01
 13.249  0.1038E+01  0.1290E+01  0.5674E+01
 13.349  0.9361E+00  0.1394E+01  0.5907E+01
 13.449  0.9454E+00  0.1033E+01  0.6105E+01
 13.549  0.8960E+00  0.1318E+01  0.6326E+01
 13.649  0.1073E+01  0.1157E+01  0.6549E+01
 13.749  0.1357E+01  0.1049E+01  0.6790E+01
 13.849  0.1300E+01  0.1056E+01  0.7026E+01
 13.949  0.1190E+01  0.1002E+01  0.7245E+01
 14.049  0.1151E+01  0.8761E+00  0.7447E+01
 14.149  0.1101E+01  0.8368E+00  0.7641E+01
 14.249  0.1195E+01  0.9749E+00  0.7858E+01
 14.349  0.1200E+01  0.1276E+01  0.8106E+01
 14.449  0.1262E+01  0.1302E+01  0.8362E+01
 14.549  0.1503E+01  0.1075E+01  0.8620E+01
 14.649  0.2301E+01  0.1054E+01  0.8955E+01
 14.749  0.1971E+01  0.9893E+00  0.9251E+01
 14.849  0.8677E+00  0.1009E+01  0.9439E+01
 14.949  0.1823E+00  0.1173E+01  0.9575E+01
 15.049  0.1902E+00  0.1074E+01  0.9701E+01
 15.149  0.1799E+00  0.1164E+01  0.9836E+01
 15.249  0.1754E+00  0.1286E+01  0.9982E+01
 15.349  0.1618E+00  0.2047E+01  0.1020E+02
 15.449  0.1571E+00  0.1860E+01  0.1040E+02
 15.549  0.1540E+00  0.1133E+01  0.1053E+02
 15.649  0.1519E+00  0.3883E+00  0.1059E+02
 15.749  0.1505E+00  0.2004E+00  0.1062E+02
 15.849  0.1502E+00  0.1978E+00  0.1066E+02
 15.949  0.1596E+00  0.1884E+00  0.1069E+02
 16.049  0.1603E+00  0.1781E+00  0.1073E+02
 16.149  0.1512E+00  0.1734E+00  0.1076E+02
 16.249  0.1495E+00  0.1687E+00  0.1079E+02
 16.349  0.1473E+00  0.1759E+00  0.1082E+02
 16.449  0.1444E+00  0.1766E+00  0.1085E+02
 16.549  0.1406E+00  0.1661E+00  0.1088E+02
 16.649  0.1384E+00  0.1644E+00  0.1092E+02
 16.749  0.1368E+00  0.1624E+00  0.1095E+02
 16.849  0.1355E+00  0.1601E+00  0.1097E+02
 16.949  0.1345E+00  0.1575E+00  0.1100E+02
 17.049  0.1336E+00  0.1530E+00  0.1103E+02
 17.149  0.1330E+00  0.1501E+00  0.1106E+02
 17.249  0.1326E+00  0.1478E+00  0.1109E+02
 17.349  0.1326E+00  0.1460E+00  0.1112E+02
 17.449  0.1321E+00  0.1445E+00  0.1114E+02
 17.549  0.1313E+00  0.1435E+00  0.1117E+02
 17.649  0.1312E+00  0.1435E+00  0.1120E+02
 17.749  0.1316E+00  0.1432E+00  0.1123E+02
 17.849  0.1327E+00  0.1434E+00  0.1125E+02
 17.949  0.1308E+00  0.1444E+00  0.1128E+02
 18.049  0.1295E+00  0.1422E+00  0.1131E+02
 18.149  0.1285E+00  0.1374E+00  0.1134E+02
 18.249  0.1295E+00  0.1371E+00  0.1136E+02
 18.349  0.1281E+00  0.1362E+00  0.1139E+02
 18.449  0.1262E+00  0.1349E+00  0.1141E+02
 18.549  0.1239E+00  0.1335E+00  0.1144E+02
 18.649  0.1211E+00  0.1343E+00  0.1147E+02
 18.749  0.1185E+00  0.1321E+00  0.1149E+02
 18.849  0.1158E+00  0.1295E+00  0.1152E+02
 18.949  0.1133E+00  0.1264E+00  0.1154E+02
 19.049  0.1108E+00  0.1231E+00  0.1156E+02
 19.149  0.1088E+00  0.1199E+00  0.1159E+02
 19.249  0.1066E+00  0.1169E+00  0.1161E+02
 19.349  0.1043E+00  0.1143E+00  0.1163E+02
 19.449  0.1020E+00  0.1120E+00  0.1165E+02
 19.549  0.1069E+00  0.1095E+00  0.1167E+02
 19.649  0.1020E+00  0.1068E+00  0.1169E+02
 19.749  0.9895E-01  0.1042E+00  0.1171E+02
 19.849  0.9757E-01  0.1075E+00  0.1173E+02
 19.949  0.9625E-01  0.1029E+00  0.1175E+02
 20.049  0.9481E-01  0.1013E+00  0.1177E+02
 20.149  0.9324E-01  0.9986E-01  0.1179E+02
 20.249  0.9154E-01  0.9829E-01  0.1181E+02
 20.349  0.8971E-01  0.9660E-01  0.1183E+02
 20.449  0.8729E-01  0.9478E-01  0.1185E+02
 20.549  0.7840E-01  0.9284E-01  0.1187E+02
 20.649  0.7213E-01  0.9078E-01  0.1188E+02
 20.749  0.6753E-01  0.8701E-01  0.1190E+02
 20.849  0.6326E-01  0.7754E-01  0.1191E+02
 20.949  0.5934E-01  0.7188E-01  0.1193E+02
 21.049  0.5630E-01  0.6722E-01  0.1194E+02
 21.149  0.5582E-01  0.6292E-01  0.1195E+02
 21.249  0.5206E-01  0.5897E-01  0.1196E+02
 21.349  0.4497E-01  0.5785E-01  0.1197E+02
 21.449  0.3455E-01  0.5538E-01  0.1198E+02
 21.549  0.2088E-01  0.4946E-01  0.1199E+02
 21.649  0.1801E-01  0.4007E-01  0.1199E+02
 21.749  0.3876E-01  0.2723E-01  0.1200E+02
 21.849  0.4367E-01  0.1403E-01  0.1201E+02
 21.949  0.5609E-01  0.1052E-01  0.1201E+02
 22.049  0.6844E-01  0.1888E-01  0.1202E+02
 22.149  0.8116E-01  0.4153E-01  0.1203E+02
 22.249  0.9269E-01  0.5174E-01  0.1205E+02
 22.349  0.9970E-01  0.6640E-01  0.1206E+02
 22.449  0.1061E+00  0.8209E-01  0.1208E+02
 22.549  0.1131E+00  0.9604E-01  0.1210E+02
 22.649  0.1201E+00  0.1044E+00  0.1213E+02
 22.749  0.1268E+00  0.1124E+00  0.1215E+02
 22.849  0.1329E+00  0.1202E+00  0.1218E+02
 22.949  0.1388E+00  0.1280E+00  0.1220E+02
 23.049  0.1436E+00  0.1356E+00  0.1223E+02
 23.149  0.1481E+00  0.1423E+00  0.1226E+02
 23.249  0.1537E+00  0.1485E+00  0.1229E+02
 23.349  0.1559E+00  0.1539E+00  0.1232E+02
 23.449  0.1570E+00  0.1596E+00  0.1235E+02
 23.549  0.1579E+00  0.1612E+00  0.1238E+02
 23.649  0.1586E+00  0.1626E+00  0.1242E+02
 23.749  0.1582E+00  0.1630E+00  0.1245E+02
 23.849  0.1568E+00  0.1635E+00  0.1248E+02
 23.949  0.1747E+00  0.1630E+00  0.1251E+02
 24.049  0.1627E+00  0.1614E+00  0.1255E+02
 24.149  0.1406E+00  0.1586E+00  0.1258E+02
 24.249  0.1352E+00  0.1701E+00  0.1261E+02
 24.349  0.1307E+00  0.1442E+00  0.1263E+02
 24.449  0.1273E+00  0.1385E+00  0.1266E+02
 24.549  0.1242E+00  0.1336E+00  0.1269E+02
 24.649  0.1214E+00  0.1298E+00  0.1271E+02
 24.749  0.1187E+00  0.1266E+00  0.1274E+02
 24.849  0.1163E+00  0.1236E+00  0.1276E+02
 24.949  0.1149E+00  0.1209E+00  0.1278E+02
