# E (eV)  dosup(E)   dosdw(E)  pdosup(E)  pdosdw(E)
  5.000 -0.379E-05 -0.223E-05 -0.379E-05 -0.222E-05
  5.100 -0.177E-04 -0.115E-04 -0.177E-04 -0.115E-04
  5.200 -0.590E-04 -0.425E-04 -0.590E-04 -0.425E-04
  5.300 -0.137E-03 -0.111E-03 -0.137E-03 -0.110E-03
  5.400 -0.221E-03 -0.199E-03 -0.221E-03 -0.199E-03
  5.500 -0.248E-03 -0.250E-03 -0.248E-03 -0.250E-03
  5.600 -0.836E-04 -0.177E-03 -0.835E-04 -0.177E-03
  5.700  0.102E-02  0.490E-03  0.102E-02  0.489E-03
  5.800  0.492E-02  0.332E-02  0.491E-02  0.332E-02
  5.900  0.126E-01  0.998E-02  0.126E-01  0.997E-02
  6.000  0.205E-01  0.185E-01  0.205E-01  0.185E-01
  6.100  0.223E-01  0.226E-01  0.222E-01  0.226E-01
  6.200  0.172E-01  0.191E-01  0.172E-01  0.191E-01
  6.300  0.127E-01  0.135E-01  0.126E-01  0.134E-01
  6.400  0.149E-01  0.134E-01  0.149E-01  0.134E-01
  6.500  0.240E-01  0.205E-01  0.240E-01  0.205E-01
  6.600  0.378E-01  0.330E-01  0.378E-01  0.330E-01
  6.700  0.522E-01  0.480E-01  0.521E-01  0.479E-01
  6.800  0.564E-01  0.568E-01  0.563E-01  0.567E-01
  6.900  0.433E-01  0.492E-01  0.433E-01  0.491E-01
  7.000  0.215E-01  0.285E-01  0.215E-01  0.284E-01
  7.100  0.746E-02  0.104E-01  0.745E-02  0.104E-01
  7.200  0.103E-01  0.696E-02  0.103E-01  0.695E-02
  7.300  0.305E-01  0.213E-01  0.305E-01  0.212E-01
  7.400  0.598E-01  0.490E-01  0.598E-01  0.489E-01
  7.500  0.793E-01  0.746E-01  0.792E-01  0.745E-01
  7.600  0.749E-01  0.790E-01  0.748E-01  0.789E-01
  7.700  0.572E-01  0.628E-01  0.571E-01  0.627E-01
  7.800  0.484E-01  0.479E-01  0.483E-01  0.478E-01
  7.900  0.552E-01  0.494E-01  0.552E-01  0.493E-01
  8.000  0.660E-01  0.611E-01  0.659E-01  0.610E-01
  8.100  0.659E-01  0.680E-01  0.657E-01  0.679E-01
  8.200  0.486E-01  0.590E-01  0.485E-01  0.589E-01
  8.300  0.245E-01  0.358E-01  0.245E-01  0.358E-01
  8.400  0.167E-01  0.159E-01  0.166E-01  0.159E-01
  8.500  0.423E-01  0.207E-01  0.422E-01  0.206E-01
  8.600  0.943E-01  0.583E-01  0.940E-01  0.582E-01
  8.700  0.137E+00  0.111E+00  0.136E+00  0.111E+00
  8.800  0.137E+00  0.141E+00  0.136E+00  0.141E+00
  8.900  0.106E+00  0.125E+00  0.106E+00  0.125E+00
  9.000  0.877E-01  0.896E-01  0.875E-01  0.894E-01
  9.100  0.950E-01  0.753E-01  0.948E-01  0.751E-01
  9.200  0.102E+00  0.872E-01  0.102E+00  0.869E-01
  9.300  0.857E-01  0.976E-01  0.855E-01  0.972E-01
  9.400  0.566E-01  0.857E-01  0.564E-01  0.854E-01
  9.500  0.494E-01  0.589E-01  0.492E-01  0.587E-01
  9.600  0.899E-01  0.442E-01  0.895E-01  0.440E-01
  9.700  0.168E+00  0.634E-01  0.167E+00  0.631E-01
  9.800  0.244E+00  0.115E+00  0.243E+00  0.115E+00
  9.900  0.287E+00  0.177E+00  0.285E+00  0.176E+00
 10.000  0.311E+00  0.220E+00  0.309E+00  0.219E+00
 10.100  0.347E+00  0.233E+00  0.345E+00  0.232E+00
 10.200  0.394E+00  0.226E+00  0.392E+00  0.224E+00
 10.300  0.429E+00  0.223E+00  0.427E+00  0.222E+00
 10.400  0.453E+00  0.248E+00  0.451E+00  0.247E+00
 10.500  0.493E+00  0.297E+00  0.490E+00  0.295E+00
 10.600  0.565E+00  0.345E+00  0.561E+00  0.343E+00
 10.700  0.657E+00  0.385E+00  0.652E+00  0.382E+00
 10.800  0.748E+00  0.448E+00  0.742E+00  0.444E+00
 10.900  0.824E+00  0.540E+00  0.818E+00  0.535E+00
 11.000  0.865E+00  0.591E+00  0.858E+00  0.584E+00
 11.100  0.867E+00  0.549E+00  0.860E+00  0.543E+00
 11.200  0.865E+00  0.497E+00  0.856E+00  0.491E+00
 11.300  0.872E+00  0.550E+00  0.862E+00  0.543E+00
 11.400  0.858E+00  0.688E+00  0.847E+00  0.680E+00
 11.500  0.803E+00  0.793E+00  0.792E+00  0.783E+00
 11.600  0.737E+00  0.815E+00  0.726E+00  0.804E+00
 11.700  0.714E+00  0.814E+00  0.702E+00  0.801E+00
 11.800  0.760E+00  0.825E+00  0.748E+00  0.810E+00
 11.900  0.837E+00  0.810E+00  0.825E+00  0.795E+00
 12.000  0.892E+00  0.752E+00  0.880E+00  0.737E+00
 12.100  0.933E+00  0.701E+00  0.922E+00  0.686E+00
 12.200  0.994E+00  0.699E+00  0.981E+00  0.684E+00
 12.300  0.106E+01  0.729E+00  0.104E+01  0.713E+00
 12.400  0.110E+01  0.760E+00  0.108E+01  0.743E+00
 12.500  0.114E+01  0.792E+00  0.112E+01  0.776E+00
 12.600  0.124E+01  0.851E+00  0.122E+01  0.834E+00
 12.700  0.140E+01  0.940E+00  0.138E+01  0.920E+00
 12.800  0.155E+01  0.102E+01  0.153E+01  0.994E+00
 12.900  0.159E+01  0.105E+01  0.157E+01  0.103E+01
 13.000  0.146E+01  0.108E+01  0.144E+01  0.106E+01
 13.100  0.119E+01  0.115E+01  0.118E+01  0.112E+01
 13.200  0.924E+00  0.123E+01  0.917E+00  0.120E+01
 13.300  0.772E+00  0.131E+01  0.766E+00  0.128E+01
 13.400  0.780E+00  0.138E+01  0.771E+00  0.135E+01
 13.500  0.915E+00  0.140E+01  0.899E+00  0.138E+01
 13.600  0.110E+01  0.130E+01  0.109E+01  0.129E+01
 13.700  0.126E+01  0.111E+01  0.124E+01  0.110E+01
 13.800  0.128E+01  0.938E+00  0.127E+01  0.923E+00
 13.900  0.118E+01  0.867E+00  0.117E+01  0.843E+00
 14.000  0.109E+01  0.873E+00  0.108E+01  0.842E+00
 14.100  0.111E+01  0.914E+00  0.111E+01  0.887E+00
 14.200  0.120E+01  0.102E+01  0.119E+01  0.101E+01
 14.300  0.124E+01  0.119E+01  0.124E+01  0.118E+01
 14.400  0.131E+01  0.127E+01  0.131E+01  0.126E+01
 14.500  0.152E+01  0.116E+01  0.152E+01  0.116E+01
 14.600  0.177E+01  0.969E+00  0.176E+01  0.966E+00
 14.700  0.175E+01  0.912E+00  0.175E+01  0.908E+00
 14.800  0.136E+01  0.103E+01  0.136E+01  0.102E+01
 14.900  0.799E+00  0.115E+01  0.790E+00  0.114E+01
 15.000  0.361E+00  0.117E+01  0.350E+00  0.116E+01
 15.100  0.189E+00  0.119E+01  0.180E+00  0.118E+01
 15.200  0.211E+00  0.135E+01  0.204E+00  0.134E+01
 15.300  0.267E+00  0.156E+01  0.263E+00  0.156E+01
 15.400  0.252E+00  0.158E+01  0.249E+00  0.158E+01
 15.500  0.177E+00  0.131E+01  0.174E+00  0.131E+01
 15.600  0.116E+00  0.883E+00  0.111E+00  0.879E+00
 15.700  0.103E+00  0.518E+00  0.946E-01  0.514E+00
 15.800  0.110E+00  0.338E+00  0.938E-01  0.334E+00
 15.900  0.976E-01  0.294E+00  0.743E-01  0.290E+00
 16.000  0.732E-01  0.269E+00  0.437E-01  0.264E+00
 16.100  0.703E-01  0.219E+00  0.369E-01  0.211E+00
 16.200  0.109E+00  0.170E+00  0.748E-01  0.154E+00
 16.300  0.173E+00  0.137E+00  0.141E+00  0.111E+00
 16.400  0.217E+00  0.104E+00  0.190E+00  0.720E-01
 16.500  0.211E+00  0.666E-01  0.191E+00  0.377E-01
 16.600  0.173E+00  0.514E-01  0.161E+00  0.303E-01
 16.700  0.140E+00  0.819E-01  0.131E+00  0.647E-01
 16.800  0.124E+00  0.143E+00  0.114E+00  0.124E+00
 16.900  0.121E+00  0.191E+00  0.108E+00  0.172E+00
 17.000  0.128E+00  0.202E+00  0.110E+00  0.186E+00
 17.100  0.139E+00  0.188E+00  0.111E+00  0.176E+00
 17.200  0.137E+00  0.171E+00  0.983E-01  0.159E+00
 17.300  0.119E+00  0.165E+00  0.717E-01  0.149E+00
 17.400  0.915E-01  0.174E+00  0.428E-01  0.147E+00
 17.500  0.688E-01  0.182E+00  0.243E-01  0.142E+00
 17.600  0.649E-01  0.167E+00  0.231E-01  0.116E+00
 17.700  0.809E-01  0.123E+00  0.359E-01  0.703E-01
 17.800  0.104E+00  0.775E-01  0.534E-01  0.306E-01
 17.900  0.128E+00  0.663E-01  0.727E-01  0.198E-01
 18.000  0.157E+00  0.914E-01  0.972E-01  0.369E-01
 18.100  0.183E+00  0.120E+00  0.121E+00  0.604E-01
 18.200  0.182E+00  0.123E+00  0.125E+00  0.715E-01
 18.300  0.139E+00  0.112E+00  0.992E-01  0.743E-01
 18.400  0.879E-01  0.120E+00  0.635E-01  0.856E-01
 18.500  0.817E-01  0.146E+00  0.520E-01  0.105E+00
 18.600  0.125E+00  0.153E+00  0.677E-01  0.111E+00
 18.700  0.162E+00  0.125E+00  0.789E-01  0.902E-01
 18.800  0.149E+00  0.105E+00  0.652E-01  0.681E-01
 18.900  0.104E+00  0.133E+00  0.412E-01  0.700E-01
 19.000  0.630E-01  0.177E+00  0.270E-01  0.834E-01
 19.100  0.408E-01  0.173E+00  0.232E-01  0.785E-01
 19.200  0.426E-01  0.117E+00  0.267E-01  0.544E-01
 19.300  0.809E-01  0.581E-01  0.421E-01  0.326E-01
 19.400  0.144E+00  0.322E-01  0.641E-01  0.246E-01
 19.500  0.185E+00  0.478E-01  0.720E-01  0.307E-01
 19.600  0.171E+00  0.103E+00  0.548E-01  0.509E-01
 19.700  0.117E+00  0.171E+00  0.263E-01  0.732E-01
 19.800  0.595E-01  0.198E+00  0.534E-02  0.749E-01
 19.900  0.180E-01  0.164E+00 -0.300E-02  0.508E-01
 20.000 -0.480E-02  0.972E-01 -0.450E-02  0.203E-01
 20.100 -0.117E-01  0.372E-01 -0.308E-02  0.167E-02
 20.200  0.148E-02  0.162E-02  0.368E-02 -0.430E-02
 20.300  0.443E-01 -0.129E-01  0.191E-01 -0.482E-02
 20.400  0.111E+00 -0.122E-01  0.384E-01 -0.250E-02
 20.500  0.163E+00  0.983E-02  0.482E-01  0.651E-02
 20.600  0.163E+00  0.636E-01  0.405E-01  0.249E-01
 20.700  0.113E+00  0.134E+00  0.236E-01  0.447E-01
 20.800  0.614E-01  0.175E+00  0.129E-01  0.510E-01
 20.900  0.455E-01  0.154E+00  0.140E-01  0.387E-01
 21.000  0.516E-01  0.945E-01  0.183E-01  0.206E-01
 21.100  0.459E-01  0.536E-01  0.156E-01  0.126E-01
 21.200  0.250E-01  0.489E-01  0.710E-02  0.160E-01
 21.300  0.201E-01  0.512E-01  0.418E-02  0.193E-01
 21.400  0.567E-01  0.366E-01  0.166E-01  0.147E-01
 21.500  0.121E+00  0.205E-01  0.427E-01  0.702E-02
 21.600  0.171E+00  0.336E-01  0.695E-01  0.597E-02
 21.700  0.173E+00  0.789E-01  0.827E-01  0.147E-01
 21.800  0.139E+00  0.125E+00  0.813E-01  0.300E-01
 21.900  0.107E+00  0.142E+00  0.778E-01  0.484E-01
 22.000  0.101E+00  0.130E+00  0.820E-01  0.668E-01
 22.100  0.118E+00  0.112E+00  0.940E-01  0.810E-01
 22.200  0.145E+00  0.106E+00  0.108E+00  0.899E-01
 22.300  0.159E+00  0.114E+00  0.113E+00  0.971E-01
 22.400  0.142E+00  0.132E+00  0.965E-01  0.106E+00
 22.500  0.107E+00  0.152E+00  0.664E-01  0.116E+00
 22.600  0.912E-01  0.160E+00  0.456E-01  0.117E+00
 22.700  0.102E+00  0.144E+00  0.429E-01  0.992E-01
 22.800  0.114E+00  0.118E+00  0.455E-01  0.714E-01
 22.900  0.112E+00  0.109E+00  0.442E-01  0.538E-01
 23.000  0.114E+00  0.116E+00  0.427E-01  0.501E-01
 23.100  0.132E+00  0.115E+00  0.435E-01  0.479E-01
 23.200  0.152E+00  0.110E+00  0.429E-01  0.441E-01
 23.300  0.163E+00  0.127E+00  0.398E-01  0.458E-01
 23.400  0.161E+00  0.160E+00  0.355E-01  0.508E-01
 23.500  0.138E+00  0.174E+00  0.287E-01  0.492E-01
 23.600  0.996E-01  0.160E+00  0.200E-01  0.396E-01
 23.700  0.793E-01  0.134E+00  0.176E-01  0.297E-01
 23.800  0.110E+00  0.111E+00  0.276E-01  0.239E-01
 23.900  0.167E+00  0.102E+00  0.412E-01  0.240E-01
 24.000  0.192E+00  0.125E+00  0.428E-01  0.324E-01
 24.100  0.171E+00  0.170E+00  0.318E-01  0.437E-01
 24.200  0.144E+00  0.188E+00  0.216E-01  0.449E-01
 24.300  0.130E+00  0.161E+00  0.185E-01  0.330E-01
 24.400  0.105E+00  0.128E+00  0.161E-01  0.211E-01
 24.500  0.644E-01  0.121E+00  0.105E-01  0.185E-01
 24.600  0.443E-01  0.116E+00  0.648E-02  0.190E-01
 24.700  0.661E-01  0.851E-01  0.837E-02  0.146E-01
 24.800  0.102E+00  0.524E-01  0.128E-01  0.867E-02
 24.900  0.111E+00  0.590E-01  0.142E-01  0.843E-02
 25.000  0.999E-01  0.956E-01  0.143E-01  0.132E-01
 25.100  0.102E+00  0.116E+00  0.194E-01  0.159E-01
